# lambda [nm], Cext, d=infty
500.000 284.93739259
500.500 287.50792330
501.000 290.10390784
501.500 292.72521349
502.000 295.37166441
502.500 298.04303800
503.000 300.73906115
503.500 303.45940593
504.000 306.20368541
504.500 308.97144888
505.000 311.76217688
505.500 314.57527586
506.000 317.41007287
506.500 320.26580888
507.000 323.14163308
507.500 326.03659589
508.000 328.94964181
508.500 331.87960191
509.000 334.82518583
509.500 337.78497341
510.000 340.75740576
510.500 343.74077599
511.000 346.73321951
511.500 349.73270353
512.000 352.73701663
512.500 355.74375735
513.000 358.75032277
513.500 361.75389623
514.000 364.75143498
514.500 367.73965713
515.000 370.71502904
515.500 373.67373252
516.000 376.61172431
516.500 379.52461401
517.000 382.40772152
517.500 385.25604539
518.000 388.06424895
518.500 390.82664676
519.000 393.53719159
519.500 396.18946195
520.000 398.77665043
520.500 401.29155331
521.000 403.32347412
521.500 402.18024673
522.000 400.91953142
522.500 399.54129591
523.000 398.04570144
523.500 396.43310536
524.000 394.70406272
524.500 392.85932731
525.000 390.89985167
525.500 388.82678640
526.000 386.64147861
526.500 384.34546942
527.000 381.94049083
527.500 379.42846160
528.000 376.81148237
528.500 374.09183000
529.000 371.27195128
529.500 368.35445575
530.000 365.34210793
530.500 362.23781905
531.000 359.04463803
531.500 355.76574206
532.000 352.40442674
532.500 348.96409581
533.000 345.44825048
533.500 341.86047876
534.000 338.20444430
534.500 334.48387525
535.000 330.70255318
535.500 326.86430174
536.000 322.97297570
536.500 319.03244989
537.000 315.04660844
537.500 311.01933427
538.000 306.95449884
538.500 302.85595227
539.000 298.72751388
539.500 294.57296305
540.000 290.39603064
540.500 286.20039090
541.000 281.98965379
541.500 277.76735789
542.000 273.53696395
542.500 269.30184876
543.000 265.06529982
543.500 260.83051042
544.000 256.60057529
544.500 252.37848689
545.000 248.16713214
545.500 243.96928969
546.000 239.78763456
546.500 235.62470891
547.000 231.48296265
547.500 227.36472435
548.000 223.27220815
548.500 219.20751372
549.000 215.58138953
549.500 212.09893751
550.000 208.65587521
550.500 205.27217466
551.000 201.92802932
