# lambda [nm], Cextmultiple_sphere_d=1
450.000 214.25510868
451.000 214.41169795
452.000 214.54914563
453.000 214.68659174
454.000 214.82400426
455.000 214.96135069
456.000 215.09859816
457.000 215.23571331
458.000 215.37266244
459.000 215.50941126
460.000 215.64592644
461.000 215.78216883
462.000 215.91810684
463.000 216.05370305
464.000 216.18892091
465.000 216.32372337
466.000 216.45807292
467.000 216.59193153
468.000 216.72526068
469.000 216.85802137
470.000 216.99017405
471.000 217.12167867
472.000 218.19564801
473.000 219.98202214
474.000 221.79646716
475.000 223.63967361
476.000 225.51235516
477.000 227.41524959
478.000 229.34911971
479.000 231.31475448
480.000 233.31297023
481.000 235.34461162
482.000 237.41055306
483.000 239.51169993
484.000 241.64898992
485.000 243.82339454
486.000 246.03592057
487.000 248.28761166
488.000 250.57955004
489.000 252.91285827
490.000 255.28870107
491.000 257.70828735
492.000 260.17287224
493.000 262.68375929
494.000 265.24230276
495.000 267.84991008
496.000 270.64908161
497.000 275.62202392
498.000 280.70798693
499.000 285.90846580
500.000 291.22461857
501.000 296.65719257
502.000 302.20643930
503.000 307.87201677
504.000 313.65287550
505.000 319.54712511
506.000 325.55190134
507.000 331.66316295
508.000 337.87552657
509.000 344.18204168
510.000 350.57391186
511.000 357.04023441
512.000 363.56773385
513.000 370.14029228
514.000 376.73861466
515.000 383.33989727
516.000 389.91718202
517.000 396.43900099
518.000 402.86875086
519.000 409.16431056
520.000 415.27722704
521.000 420.72750327
522.000 418.88740405
523.000 416.55441519
524.000 413.72652815
525.000 410.40495626
526.000 406.59425042
527.000 402.30241580
528.000 397.54078563
529.000 392.32411071
530.000 386.67009441
531.000 380.59955209
532.000 374.13599551
533.000 367.30534724
534.000 360.13551730
535.000 352.65640510
536.000 344.89900838
537.000 336.89555234
538.000 328.67865741
539.000 320.28132043
540.000 311.73631421
541.000 303.07600277
542.000 294.33187981
543.000 285.53447724
544.000 276.71297722
545.000 267.89504382
546.000 259.10671895
547.000 250.37222510
548.000 241.71391179
549.000 233.56550054
550.000 226.18482795
551.000 219.00355370
552.000 211.98356914
553.000 205.12818493
554.000 198.43978981
555.000 191.92007165
556.000 185.56992284
557.000 179.38962539
558.000 173.37888533
559.000 167.53685662
560.000 161.86227203
561.000 156.35338173
562.000 151.00813967
563.000 145.82414253
564.000 140.79876287
565.000 135.92909780
566.000 131.21207315
567.000 126.64445874
568.000 122.22290288
569.000 117.94392825
570.000 113.80401213
571.000 109.79956008
572.000 105.92694854
573.000 102.18255042
574.000 98.56272417
575.000 95.06385200
576.000 91.66683623
577.000 88.38487308
578.000 85.21438231
579.000 82.15184200
580.000 79.19379028
581.000 76.33683514
582.000 73.57765526
583.000 71.30149550
584.000 69.13801837
585.000 67.04741035
586.000 65.02693720
587.000 63.07396413
588.000 61.18596641
589.000 59.36052555
590.000 57.59531591
591.000 55.88809679
592.000 54.23671997
593.000 52.63913530
594.000 51.09336509
595.000 49.59750307
596.000 48.14973885
597.000 46.74831102
598.000 45.39155154
599.000 44.07784100
600.000 42.80562804
