# lambda [nm], Cextmultiple_sphere_d=4
450.000 211.41993818
451.000 211.57396003
452.000 211.71333413
453.000 211.85284203
454.000 211.99245291
455.000 212.13213557
456.000 212.27185836
457.000 212.41158919
458.000 212.55129558
459.000 212.69094454
460.000 212.83050265
461.000 212.96993606
462.000 213.10921042
463.000 213.24829093
464.000 213.38714226
465.000 213.52572869
466.000 213.66401397
467.000 213.80196133
468.000 213.93953355
469.000 214.07669286
470.000 214.21340100
471.000 214.34961917
472.000 215.40413689
473.000 217.15324999
474.000 218.93040408
475.000 220.73629224
476.000 222.57163108
477.000 224.43716171
478.000 226.33365078
479.000 228.26189158
480.000 230.22270524
481.000 232.21694190
482.000 234.24548195
483.000 236.30923753
484.000 238.40915373
485.000 240.54621029
486.000 242.72142304
487.000 244.93584560
488.000 247.19057112
489.000 249.48673418
490.000 251.82551267
491.000 254.20812990
492.000 256.63585673
493.000 259.11001390
494.000 261.63197448
495.000 264.20316637
496.000 266.95929832
497.000 271.78438063
498.000 276.71467729
499.000 281.75105342
500.000 286.89398094
501.000 292.14346071
502.000 297.49893284
503.000 302.95917375
504.000 308.52217831
505.000 314.18502489
506.000 319.94372189
507.000 325.79303339
508.000 331.72628148
509.000 337.73512365
510.000 343.80932343
511.000 349.93639038
512.000 356.10138868
513.000 362.28651759
514.000 368.47075683
515.000 374.62946232
516.000 380.73393273
517.000 386.75095412
518.000 392.64232672
519.000 398.36439385
520.000 403.86757634
521.000 408.68599907
522.000 406.44561608
523.000 403.72775362
524.000 400.53328699
525.000 396.86629709
526.000 392.73410840
527.000 388.14727133
528.000 383.11948883
529.000 377.66749254
530.000 371.81086311
531.000 365.57180502
532.000 358.97487579
533.000 352.04668383
534.000 344.81555505
535.000 337.31118021
536.000 329.56425191
537.000 321.60609980
538.000 313.46833106
539.000 305.18248430
540.000 296.77970473
541.000 288.29044488
542.000 279.74419575
543.000 271.16925187
544.000 262.59251207
545.000 254.03931633
546.000 245.53331947
547.000 237.09639870
548.000 228.74859669
549.000 220.91858836
550.000 213.85553878
551.000 206.99099923
552.000 200.28673999
553.000 193.74514865
554.000 187.36784852
555.000 181.15576743
556.000 175.10920044
557.000 169.22787256
558.000 163.51099897
559.000 157.95733846
560.000 152.56524932
561.000 147.33273702
562.000 142.25753362
563.000 137.33700503
564.000 132.56839641
565.000 127.94873028
566.000 123.47487196
567.000 119.14356158
568.000 114.95144023
569.000 110.89507541
570.000 106.97098054
571.000 103.17563732
572.000 99.50551112
573.000 95.95706663
574.000 92.52678219
575.000 89.21116049
576.000 85.99171918
577.000 82.88127617
578.000 79.87639612
579.000 76.97370427
580.000 74.16989164
581.000 71.46171880
582.000 68.84602280
583.000 66.69643507
584.000 64.65389656
585.000 62.67988292
586.000 60.77182166
587.000 58.92724248
588.000 57.14377351
589.000 55.41913263
590.000 53.75114424
591.000 52.13770703
592.000 50.57679719
593.000 49.06649184
594.000 47.60492765
595.000 46.19032376
596.000 44.82097336
597.000 43.49523061
598.000 42.21152004
599.000 40.96832818
600.000 39.76419728
