# lambda [nm], diel_real, diel_imag
500.500 1.782171600400000111e+00 2.687047744000000601e-09
501.500 1.782064803599999969e+00 2.721141695999999918e-09
502.500 1.781958009999999870e+00 2.755233600000000535e-09
503.500 1.781851219599999814e+00 2.789323455999999555e-09
504.500 1.781744432399999800e+00 2.823411264000000289e-09
505.500 1.781637648400000273e+00 2.857497023999999840e-09
506.500 1.781530867600000123e+00 2.891580736000000277e-09
507.500 1.781424090000000016e+00 2.925662399999999945e-09
508.500 1.781317315599999951e+00 2.959742016000000085e-09
509.500 1.781210544399999707e+00 2.993819583999999457e-09
510.500 1.781103776400000172e+00 3.027895104000000542e-09
511.500 1.780997011600000235e+00 3.061968576000000031e-09
512.500 1.780890250000000119e+00 3.096040000000000405e-09
513.500 1.780783491600000046e+00 3.130109375999999598e-09
514.500 1.780676736399999793e+00 3.164176704000000089e-09
515.500 1.780569984400000250e+00 3.198241984000000226e-09
516.500 1.780463235600000305e+00 3.232305216000000421e-09
517.500 1.780356490000000180e+00 3.266366399999999847e-09
518.500 1.780249747600000099e+00 3.300425536000000159e-09
519.500 1.780143008399999838e+00 3.334482623999999703e-09
520.500 1.780036272400000286e+00 3.368537664000000546e-09
521.500 1.779929539600000332e+00 3.402590655999999793e-09
522.500 1.779822810000000199e+00 3.436641600000000339e-09
523.500 1.779716083600000109e+00 3.470690495999999703e-09
524.500 1.779609360400000062e+00 3.504737344000000366e-09
525.500 1.779502640400000502e+00 3.555857088000000348e-09
526.500 1.779395923600000318e+00 3.624048192000000416e-09
527.500 1.779289210000000176e+00 3.692235200000000187e-09
528.500 1.779182499600000078e+00 3.760418111999999662e-09
529.500 1.779075792400000022e+00 3.828596927999999667e-09
530.500 1.778969088400000009e+00 3.896771647999999790e-09
531.500 1.778862387600000483e+00 3.964942272000000029e-09
532.500 1.778755690000000333e+00 4.033108800000000386e-09
533.500 1.778648995600000227e+00 4.101271232000000033e-09
534.500 1.778542304400000162e+00 4.169429567999999796e-09
535.500 1.778435616399999919e+00 4.237583807999999677e-09
536.500 1.778328931599999940e+00 4.305733951999999675e-09
537.500 1.778222249999999782e+00 4.373879999999999789e-09
538.500 1.778115571600000333e+00 4.442021952000000021e-09
539.500 1.778008896400000038e+00 4.510159807999999543e-09
540.500 1.777902224400000009e+00 4.578293568000000009e-09
541.500 1.777795555600000021e+00 4.646423231999999765e-09
542.500 1.777688889999999855e+00 4.714548799999999638e-09
543.500 1.777582227599999731e+00 4.782670271999999628e-09
544.500 1.777475568400000094e+00 4.850787647999999735e-09
545.500 1.777368912400000056e+00 4.918900927999999959e-09
546.500 1.777262259600000061e+00 4.987010111999999473e-09
547.500 1.777155609999999886e+00 5.055115199999999931e-09
548.500 1.777048963599999754e+00 5.123216191999998852e-09
549.500 1.776942320399999664e+00 5.191313087999999544e-09
550.500 1.776888999999999941e+00 5.312804799999999976e-09
