# lambda [nm], diel_real, diel_imag
380.000 1.797208359999999949e+00 8.504766399999999046e-09
380.500 1.797101113599999911e+00 8.416571903999999984e-09
381.000 1.796993870399999915e+00 8.328382655999999816e-09
381.500 1.796886630399999740e+00 8.240198655999998541e-09
382.000 1.796779393600000274e+00 8.152019904000001123e-09
382.500 1.796672160000000185e+00 8.063846399999999290e-09
383.000 1.796564929599999916e+00 7.975678143999999660e-09
383.500 1.796457702399999912e+00 7.887515136000000577e-09
384.000 1.796350478399999728e+00 7.799357375999998733e-09
384.500 1.796243257599999588e+00 7.711204863999999092e-09
385.000 1.796136040000000156e+00 7.623057599999999999e-09
385.500 1.796028825600000101e+00 7.534915583999999799e-09
386.000 1.795921614399999866e+00 7.446778815999999320e-09
386.500 1.795814406399999896e+00 7.358647296000000216e-09
387.000 1.795707201599999747e+00 7.270521023999999179e-09
387.500 1.795599999999999641e+00 7.182399999999998689e-09
388.000 1.795492801600000021e+00 7.094284223999999575e-09
388.500 1.795385606400000000e+00 7.006173696000000181e-09
389.000 1.795278414399999800e+00 6.918068415999999681e-09
389.500 1.795171225599999865e+00 6.829968383999999729e-09
390.000 1.795064039999999750e+00 6.741873599999999498e-09
390.500 1.794956857600000122e+00 6.653784063999999815e-09
391.000 1.794849678400000093e+00 6.565699775999999025e-09
391.500 1.794742502399999884e+00 6.477620735999999610e-09
392.000 1.794635329599999940e+00 6.389546943999999089e-09
392.500 1.794528159999999817e+00 6.301478399999999943e-09
393.000 1.794420993599999736e+00 6.213415103999999691e-09
393.500 1.794313830400000143e+00 6.125357055999999987e-09
394.000 1.794206670399999926e+00 6.037304255999999176e-09
394.500 1.794099513599999973e+00 5.949256703999999740e-09
395.000 1.793992359999999842e+00 5.861214399999999198e-09
395.500 1.793885209599999753e+00 5.773177344000000031e-09
396.000 1.793778062400000151e+00 5.685145536000000585e-09
396.500 1.793670918400000147e+00 5.597118976000000032e-09
397.000 1.793563777599999964e+00 5.509097663999999200e-09
397.500 1.793456639999999824e+00 5.421081599999999744e-09
398.000 1.793349505599999727e+00 5.333070783999999181e-09
398.500 1.793242374399999672e+00 5.245065215999999993e-09
399.000 1.793135246400000105e+00 5.157064896000000525e-09
399.500 1.793028121599999913e+00 5.069069823999999952e-09
400.000 1.792920999999999987e+00 4.981079999999999926e-09
