# lambda [nm], refrac_index_real, refrac_index_imag
187.85484454 1.280e+00 1.188e+00
191.62936228 1.320e+00 1.203e+00
195.25070456 1.340e+00 1.226e+00
199.33150706 1.330e+00 1.251e+00
203.25278261 1.330e+00 1.277e+00
207.33143377 1.300e+00 1.304e+00
211.93879896 1.300e+00 1.350e+00
216.37730784 1.300e+00 1.387e+00
221.40035249 1.300e+00 1.427e+00
226.24853539 1.310e+00 1.460e+00
231.31380111 1.300e+00 1.497e+00
237.06347494 1.320e+00 1.536e+00
242.63052328 1.320e+00 1.577e+00
248.96425179 1.330e+00 1.631e+00
255.11151727 1.330e+00 1.688e+00
261.57003670 1.350e+00 1.749e+00
268.94619825 1.380e+00 1.803e+00
276.13406992 1.430e+00 1.847e+00
284.36742521 1.470e+00 1.869e+00
292.41555989 1.490e+00 1.878e+00
300.93251795 1.530e+00 1.889e+00
310.73733683 1.530e+00 1.893e+00
320.37260308 1.540e+00 1.898e+00
331.50854918 1.480e+00 1.883e+00
342.49778286 1.480e+00 1.871e+00
354.24056398 1.500e+00 1.866e+00
367.90563025 1.480e+00 1.895e+00
381.48983813 1.460e+00 1.933e+00
397.38524806 1.470e+00 1.952e+00
413.28065798 1.460e+00 1.958e+00
430.50068539 1.450e+00 1.948e+00
450.85162689 1.380e+00 1.914e+00
471.42280378 1.310e+00 1.849e+00
495.93678957 1.040e+00 1.833e+00
520.94200586 6.200e-01 2.081e+00
548.60264333 4.300e-01 2.455e+00
582.08543377 2.900e-01 2.863e+00
616.83680295 2.100e-01 3.272e+00
659.49041167 1.400e-01 3.697e+00
704.45566701 1.300e-01 4.103e+00
756.00120362 1.400e-01 4.542e+00
821.08739996 1.600e-01 5.083e+00
891.97264312 1.700e-01 5.663e+00
984.00156662 2.200e-01 6.350e+00
1087.58067889 2.700e-01 7.150e+00
1215.53134700 3.500e-01 8.145e+00
1393.08086959 4.300e-01 9.519e+00
1610.18438174 5.600e-01 1.121e+01
1937.25308428 9.200e-01 1.378e+01
